Spectra ASCII data for data set...
Kinetic Energy(eV)	Binding Energy(eV)	Intensity(Counts)	Intensity(Counts/sec)	Transmission Value
386.690000	1100.000000	6815	17037.500000	5.764027
387.690000	1099.000000	6811	17027.500000	5.761464
388.690000	1098.000000	6820	17050.000000	5.758900
389.690000	1097.000000	6966	17415.000000	5.756337
390.690000	1096.000000	6919	17297.500000	5.753774
391.690000	1095.000000	6852	17130.000000	5.751211
392.690000	1094.000000	6840	17100.000000	5.748648
393.690000	1093.000000	6878	17195.000000	5.746085
394.690000	1092.000000	6939	17347.500000	5.743522
395.690000	1091.000000	6977	17442.500000	5.740959
396.690000	1090.000000	6966	17415.000000	5.738396
397.690000	1089.000000	6928	17320.000000	5.735833
398.690000	1088.000000	6916	17290.000000	5.733269
399.690000	1087.000000	6978	17445.000000	5.730706
400.690000	1086.000000	7026	17565.000000	5.728143
401.690000	1085.000000	7001	17502.500000	5.725580
402.690000	1084.000000	7045	17612.500000	5.723017
403.690000	1083.000000	6980	17450.000000	5.720454
404.690000	1082.000000	7000	17500.000000	5.717891
405.690000	1081.000000	6905	17262.500000	5.715328
406.690000	1080.000000	7005	17512.500000	5.712765
407.690000	1079.000000	7148	17870.000000	5.710201
408.690000	1078.000000	7018	17545.000000	5.707638
409.690000	1077.000000	7117	17792.500000	5.705075
410.690000	1076.000000	7002	17505.000000	5.702512
411.690000	1075.000000	7045	17612.500000	5.699949
412.690000	1074.000000	6980	17450.000000	5.697386
413.690000	1073.000000	7044	17610.000000	5.694823
414.690000	1072.000000	7056	17640.000000	5.692260
415.690000	1071.000000	7063	17657.500000	5.689697
416.690000	1070.000000	7042	17605.000000	5.687134
417.690000	1069.000000	7061	17652.500000	5.684570
418.690000	1068.000000	7075	17687.500000	5.682007
419.690000	1067.000000	7192	17980.000000	5.679444
420.690000	1066.000000	7128	17820.000000	5.676881
421.690000	1065.000000	7085	17712.500000	5.674318
422.690000	1064.000000	7113	17782.500000	5.671755
423.690000	1063.000000	7208	18020.000000	5.669192
424.690000	1062.000000	7118	17795.000000	5.666629
425.690000	1061.000000	7033	17582.500000	5.664066
426.690000	1060.000000	7099	17747.500000	5.661502
427.690000	1059.000000	7048	17620.000000	5.658939
428.690000	1058.000000	7129	17822.500000	5.656376
429.690000	1057.000000	7114	17785.000000	5.653813
430.690000	1056.000000	7281	18202.500000	5.651250
431.690000	1055.000000	7331	18327.500000	5.648687
432.690000	1054.000000	7401	18502.500000	5.646124
433.690000	1053.000000	7336	18340.000000	5.643561
434.690000	1052.000000	7188	17970.000000	5.640998
435.690000	1051.000000	7197	17992.500000	5.638435
436.690000	1050.000000	7367	18417.500000	5.635871
437.690000	1049.000000	7125	17812.500000	5.633308
438.690000	1048.000000	7282	18205.000000	5.630745
439.690000	1047.000000	7352	18380.000000	5.628182
440.690000	1046.000000	7396	18490.000000	5.625619
441.690000	1045.000000	7269	18172.500000	5.623056
442.690000	1044.000000	7226	18065.000000	5.620493
443.690000	1043.000000	7280	18200.000000	5.617930
444.690000	1042.000000	7376	18440.000000	5.615367
445.690000	1041.000000	7417	18542.500000	5.612803
446.690000	1040.000000	7462	18655.000000	5.610240
447.690000	1039.000000	7330	18325.000000	5.607677
448.690000	1038.000000	7409	18522.500000	5.605114
449.690000	1037.000000	7384	18460.000000	5.602551
450.690000	1036.000000	7428	18570.000000	5.599988
451.690000	1035.000000	7417	18542.500000	5.597425
452.690000	1034.000000	7306	18265.000000	5.594862
453.690000	1033.000000	7458	18645.000000	5.592299
454.690000	1032.000000	7349	18372.500000	5.589736
455.690000	1031.000000	7375	18437.500000	5.587172
456.690000	1030.000000	7332	18330.000000	5.584180
457.690000	1029.000000	7442	18605.000000	5.580967
458.690000	1028.000000	7477	18692.500000	5.577754
459.690000	1027.000000	7455	18637.500000	5.574540
460.690000	1026.000000	7399	18497.500000	5.571327
461.690000	1025.000000	7544	18860.000000	5.568114
462.690000	1024.000000	7639	19097.500000	5.564900
463.690000	1023.000000	7506	18765.000000	5.561687
464.690000	1022.000000	7584	18960.000000	5.558474
465.690000	1021.000000	7553	18882.500000	5.555260
466.690000	1020.000000	7666	19165.000000	5.552047
467.690000	1019.000000	7564	18910.000000	5.548834
468.690000	1018.000000	7635	19087.500000	5.545620
469.690000	1017.000000	7662	19155.000000	5.542407
470.690000	1016.000000	7660	19150.000000	5.539194
471.690000	1015.000000	7607	19017.500000	5.535981
472.690000	1014.000000	7692	19230.000000	5.532767
473.690000	1013.000000	7788	19470.000000	5.529554
474.690000	1012.000000	7766	19415.000000	5.526341
475.690000	1011.000000	7591	18977.500000	5.523127
476.690000	1010.000000	7662	19155.000000	5.519914
477.690000	1009.000000	7598	18995.000000	5.516701
478.690000	1008.000000	7636	19090.000000	5.513487
479.690000	1007.000000	7535	18837.500000	5.510274
480.690000	1006.000000	7679	19197.500000	5.507061
481.690000	1005.000000	7844	19610.000000	5.503847
482.690000	1004.000000	7726	19315.000000	5.500634
483.690000	1003.000000	7811	19527.500000	5.497421
484.690000	1002.000000	7938	19845.000000	5.494208
485.690000	1001.000000	8069	20172.500000	5.490994
486.690000	1000.000000	7866	19665.000000	5.487781
487.690000	999.000000	7922	19805.000000	5.484568
488.690000	998.000000	8042	20105.000000	5.481354
489.690000	997.000000	8029	20072.500000	5.478141
490.690000	996.000000	8032	20080.000000	5.474928
491.690000	995.000000	8053	20132.500000	5.471714
492.690000	994.000000	8021	20052.500000	5.468501
493.690000	993.000000	7970	19925.000000	5.465288
494.690000	992.000000	7922	19805.000000	5.462074
495.690000	991.000000	7874	19685.000000	5.458861
496.690000	990.000000	7831	19577.500000	5.455648
497.690000	989.000000	7746	19365.000000	5.452435
498.690000	988.000000	7851	19627.500000	5.449221
499.690000	987.000000	7744	19360.000000	5.446008
500.690000	986.000000	7657	19142.500000	5.442795
501.690000	985.000000	7660	19150.000000	5.439581
502.690000	984.000000	7531	18827.500000	5.436368
503.690000	983.000000	7510	18775.000000	5.433155
504.690000	982.000000	7580	18950.000000	5.429941
505.690000	981.000000	7502	18755.000000	5.426728
506.690000	980.000000	7669	19172.500000	5.423515
507.690000	979.000000	7894	19735.000000	5.420301
508.690000	978.000000	8030	20075.000000	5.417088
509.690000	977.000000	8031	20077.500000	5.413875
510.690000	976.000000	8386	20965.000000	5.410662
511.690000	975.000000	8617	21542.500000	5.407448
512.690000	974.000000	8868	22170.000000	5.404235
513.690000	973.000000	8818	22045.000000	5.401022
514.690000	972.000000	8489	21222.500000	5.397808
515.690000	971.000000	8295	20737.500000	5.394595
516.690000	970.000000	8280	20700.000000	5.391382
517.690000	969.000000	8149	20372.500000	5.388168
518.690000	968.000000	7935	19837.500000	5.384955
519.690000	967.000000	7786	19465.000000	5.381742
520.690000	966.000000	7398	18495.000000	5.378528
521.690000	965.000000	7190	17975.000000	5.375315
522.690000	964.000000	7000	17500.000000	5.372102
523.690000	963.000000	6962	17405.000000	5.368889
524.690000	962.000000	6798	16995.000000	5.365675
525.690000	961.000000	6689	16722.500000	5.362462
526.690000	960.000000	6681	16702.500000	5.359249
527.690000	959.000000	6717	16792.500000	5.356035
528.690000	958.000000	6642	16605.000000	5.352822
529.690000	957.000000	6621	16552.500000	5.349609
530.690000	956.000000	6684	16710.000000	5.346395
531.690000	955.000000	6713	16782.500000	5.343182
532.690000	954.000000	6681	16702.500000	5.339969
533.690000	953.000000	6742	16855.000000	5.336755
534.690000	952.000000	6693	16732.500000	5.333542
535.690000	951.000000	6846	17115.000000	5.330329
536.690000	950.000000	6830	17075.000000	5.327116
537.690000	949.000000	6746	16865.000000	5.323902
538.690000	948.000000	6673	16682.500000	5.320689
539.690000	947.000000	6774	16935.000000	5.317476
540.690000	946.000000	6709	16772.500000	5.314262
541.690000	945.000000	6813	17032.500000	5.311049
542.690000	944.000000	6807	17017.500000	5.307836
543.690000	943.000000	6815	17037.500000	5.304622
544.690000	942.000000	6862	17155.000000	5.301409
545.690000	941.000000	6872	17180.000000	5.298196
546.690000	940.000000	6747	16867.500000	5.294982
547.690000	939.000000	6821	17052.500000	5.291769
548.690000	938.000000	6875	17187.500000	5.288556
549.690000	937.000000	6979	17447.500000	5.285342
550.690000	936.000000	6874	17185.000000	5.282129
551.690000	935.000000	6900	17250.000000	5.278916
552.690000	934.000000	6780	16950.000000	5.275703
553.690000	933.000000	6802	17005.000000	5.272489
554.690000	932.000000	6875	17187.500000	5.269276
555.690000	931.000000	6882	17205.000000	5.266063
556.690000	930.000000	6821	17052.500000	5.262849
557.690000	929.000000	6882	17205.000000	5.259636
558.690000	928.000000	6906	17265.000000	5.256423
559.690000	927.000000	6907	17267.500000	5.253209
560.690000	926.000000	6908	17270.000000	5.249996
561.690000	925.000000	7006	17515.000000	5.246783
562.690000	924.000000	6985	17462.500000	5.243569
563.690000	923.000000	6858	17145.000000	5.240356
564.690000	922.000000	6975	17437.500000	5.237143
565.690000	921.000000	6938	17345.000000	5.233930
566.690000	920.000000	6831	17077.500000	5.230716
567.690000	919.000000	6908	17270.000000	5.227503
568.690000	918.000000	6806	17015.000000	5.224290
569.690000	917.000000	6813	17032.500000	5.221076
570.690000	916.000000	6783	16957.500000	5.217863
571.690000	915.000000	6857	17142.500000	5.214650
572.690000	914.000000	6994	17485.000000	5.211436
573.690000	913.000000	6906	17265.000000	5.208223
574.690000	912.000000	6941	17352.500000	5.205010
575.690000	911.000000	6829	17072.500000	5.201796
576.690000	910.000000	6831	17077.500000	5.198583
577.690000	909.000000	6867	17167.500000	5.195370
578.690000	908.000000	6981	17452.500000	5.192157
579.690000	907.000000	6984	17460.000000	5.188943
580.690000	906.000000	7028	17570.000000	5.185730
581.690000	905.000000	6918	17295.000000	5.182517
582.690000	904.000000	7040	17600.000000	5.179303
583.690000	903.000000	7008	17520.000000	5.176090
584.690000	902.000000	7055	17637.500000	5.172877
585.690000	901.000000	7104	17760.000000	5.169663
586.690000	900.000000	6995	17487.500000	5.166450
587.690000	899.000000	7038	17595.000000	5.163237
588.690000	898.000000	6954	17385.000000	5.160023
589.690000	897.000000	7069	17672.500000	5.156810
590.690000	896.000000	7075	17687.500000	5.153597
591.690000	895.000000	7101	17752.500000	5.150384
592.690000	894.000000	7184	17960.000000	5.147170
593.690000	893.000000	6965	17412.500000	5.143957
594.690000	892.000000	7016	17540.000000	5.140744
595.690000	891.000000	6983	17457.500000	5.137530
596.690000	890.000000	6978	17445.000000	5.134317
597.690000	889.000000	7021	17552.500000	5.131104
598.690000	888.000000	6929	17322.500000	5.127890
599.690000	887.000000	6847	17117.500000	5.124677
600.690000	886.000000	6555	16387.500000	5.121464
601.690000	885.000000	6497	16242.500000	5.118250
602.690000	884.000000	6486	16215.000000	5.115037
603.690000	883.000000	6349	15872.500000	5.111824
604.690000	882.000000	6462	16155.000000	5.108611
605.690000	881.000000	6406	16015.000000	5.105397
606.690000	880.000000	6271	15677.500000	5.102184
607.690000	879.000000	6244	15610.000000	5.098971
608.690000	878.000000	6362	15905.000000	5.095757
609.690000	877.000000	6446	16115.000000	5.092544
610.690000	876.000000	6284	15710.000000	5.089331
611.690000	875.000000	6368	15920.000000	5.086117
612.690000	874.000000	6351	15877.500000	5.082904
613.690000	873.000000	6203	15507.500000	5.079691
614.690000	872.000000	6325	15812.500000	5.076477
615.690000	871.000000	6351	15877.500000	5.073264
616.690000	870.000000	6299	15747.500000	5.070051
617.690000	869.000000	6251	15627.500000	5.066838
618.690000	868.000000	6313	15782.500000	5.063624
619.690000	867.000000	6294	15735.000000	5.060411
620.690000	866.000000	6219	15547.500000	5.057198
621.690000	865.000000	6214	15535.000000	5.053984
622.690000	864.000000	6230	15575.000000	5.050771
623.690000	863.000000	6251	15627.500000	5.047558
624.690000	862.000000	6302	15755.000000	5.044344
625.690000	861.000000	6221	15552.500000	5.041131
626.690000	860.000000	6241	15602.500000	5.037918
627.690000	859.000000	6417	16042.500000	5.034704
628.690000	858.000000	6308	15770.000000	5.031491
629.690000	857.000000	6238	15595.000000	5.028278
630.690000	856.000000	6472	16180.000000	5.025065
631.690000	855.000000	6327	15817.500000	5.021851
632.690000	854.000000	6424	16060.000000	5.018638
633.690000	853.000000	6381	15952.500000	5.015425
634.690000	852.000000	6610	16525.000000	5.012211
635.690000	851.000000	6556	16390.000000	5.008998
636.690000	850.000000	6524	16310.000000	5.005785
637.690000	849.000000	6443	16107.500000	5.002571
638.690000	848.000000	6548	16370.000000	4.999358
639.690000	847.000000	6658	16645.000000	4.996145
640.690000	846.000000	6550	16375.000000	4.992931
641.690000	845.000000	6586	16465.000000	4.989718
642.690000	844.000000	6674	16685.000000	4.986505
643.690000	843.000000	6514	16285.000000	4.983292
644.690000	842.000000	6589	16472.500000	4.980078
645.690000	841.000000	6468	16170.000000	4.976865
646.690000	840.000000	6296	15740.000000	4.973652
647.690000	839.000000	6325	15812.500000	4.970438
648.690000	838.000000	6272	15680.000000	4.967225
649.690000	837.000000	6176	15440.000000	4.964012
650.690000	836.000000	6097	15242.500000	4.960798
651.690000	835.000000	6031	15077.500000	4.957585
652.690000	834.000000	5908	14770.000000	4.954372
653.690000	833.000000	5718	14295.000000	4.951158
654.690000	832.000000	5699	14247.500000	4.947945
655.690000	831.000000	5489	13722.500000	4.944732
656.690000	830.000000	5317	13292.500000	4.941519
657.690000	829.000000	5293	13232.500000	4.938305
658.690000	828.000000	5225	13062.500000	4.935092
659.690000	827.000000	5179	12947.500000	4.931879
660.690000	826.000000	5179	12947.500000	4.928665
661.690000	825.000000	5247	13117.500000	4.925452
662.690000	824.000000	5085	12712.500000	4.922239
663.690000	823.000000	5211	13027.500000	4.919025
664.690000	822.000000	5144	12860.000000	4.915812
665.690000	821.000000	5066	12665.000000	4.913919
666.690000	820.000000	5158	12895.000000	4.912454
667.690000	819.000000	5197	12992.500000	4.910989
668.690000	818.000000	5165	12912.500000	4.909524
669.690000	817.000000	5116	12790.000000	4.908058
670.690000	816.000000	5101	12752.500000	4.906593
671.690000	815.000000	5104	12760.000000	4.905128
672.690000	814.000000	5187	12967.500000	4.903663
673.690000	813.000000	5069	12672.500000	4.902197
674.690000	812.000000	5078	12695.000000	4.900732
675.690000	811.000000	5268	13170.000000	4.899267
676.690000	810.000000	5184	12960.000000	4.897802
677.690000	809.000000	5293	13232.500000	4.896336
678.690000	808.000000	5107	12767.500000	4.894871
679.690000	807.000000	5048	12620.000000	4.893406
680.690000	806.000000	5092	12730.000000	4.891941
681.690000	805.000000	5117	12792.500000	4.890475
682.690000	804.000000	5208	13020.000000	4.889010
683.690000	803.000000	5130	12825.000000	4.887545
684.690000	802.000000	5153	12882.500000	4.886080
685.690000	801.000000	5070	12675.000000	4.884614
686.690000	800.000000	5115	12787.500000	4.883149
687.690000	799.000000	5055	12637.500000	4.881684
688.690000	798.000000	5072	12680.000000	4.880219
689.690000	797.000000	5156	12890.000000	4.878753
690.690000	796.000000	5126	12815.000000	4.877288
691.690000	795.000000	5097	12742.500000	4.875823
692.690000	794.000000	5074	12685.000000	4.874358
693.690000	793.000000	5225	13062.500000	4.872892
694.690000	792.000000	5211	13027.500000	4.871427
695.690000	791.000000	5236	13090.000000	4.869962
696.690000	790.000000	5239	13097.500000	4.868497
697.690000	789.000000	5227	13067.500000	4.867031
698.690000	788.000000	5454	13635.000000	4.865566
699.690000	787.000000	5392	13480.000000	4.864101
700.690000	786.000000	5518	13795.000000	4.862636
701.690000	785.000000	5578	13945.000000	4.861170
702.690000	784.000000	5627	14067.500000	4.859705
703.690000	783.000000	5633	14082.500000	4.858240
704.690000	782.000000	5560	13900.000000	4.856775
705.690000	781.000000	5500	13750.000000	4.855309
706.690000	780.000000	5388	13470.000000	4.853844
707.690000	779.000000	5383	13457.500000	4.852379
708.690000	778.000000	5325	13312.500000	4.850914
709.690000	777.000000	5206	13015.000000	4.849448
710.690000	776.000000	5070	12675.000000	4.847983
711.690000	775.000000	5085	12712.500000	4.846518
712.690000	774.000000	5003	12507.500000	4.845053
713.690000	773.000000	4984	12460.000000	4.843587
714.690000	772.000000	4980	12450.000000	4.842122
715.690000	771.000000	5022	12555.000000	4.840657
716.690000	770.000000	5044	12610.000000	4.839192
717.690000	769.000000	4990	12475.000000	4.837726
718.690000	768.000000	5047	12617.500000	4.836261
719.690000	767.000000	4976	12440.000000	4.834796
720.690000	766.000000	5008	12520.000000	4.833331
721.690000	765.000000	4951	12377.500000	4.831865
722.690000	764.000000	4942	12355.000000	4.830400
723.690000	763.000000	4953	12382.500000	4.828935
724.690000	762.000000	4909	12272.500000	4.827470
725.690000	761.000000	4867	12167.500000	4.826004
726.690000	760.000000	4852	12130.000000	4.824539
727.690000	759.000000	4854	12135.000000	4.823074
728.690000	758.000000	4977	12442.500000	4.821609
729.690000	757.000000	4869	12172.500000	4.820143
730.690000	756.000000	4854	12135.000000	4.818678
731.690000	755.000000	4896	12240.000000	4.817213
732.690000	754.000000	4925	12312.500000	4.815748
733.690000	753.000000	5005	12512.500000	4.814282
734.690000	752.000000	4921	12302.500000	4.812817
735.690000	751.000000	4967	12417.500000	4.811352
736.690000	750.000000	4903	12257.500000	4.809887
737.690000	749.000000	4956	12390.000000	4.808421
738.690000	748.000000	4929	12322.500000	4.806956
739.690000	747.000000	5037	12592.500000	4.805491
740.690000	746.000000	5161	12902.500000	4.804025
741.690000	745.000000	5071	12677.500000	4.802560
742.690000	744.000000	5032	12580.000000	4.801095
743.690000	743.000000	5048	12620.000000	4.799630
744.690000	742.000000	5149	12872.500000	4.798164
745.690000	741.000000	5170	12925.000000	4.796699
746.690000	740.000000	5041	12602.500000	4.795234
747.690000	739.000000	5182	12955.000000	4.793769
748.690000	738.000000	5190	12975.000000	4.792303
749.690000	737.000000	5019	12547.500000	4.790838
750.690000	736.000000	4958	12395.000000	4.789373
751.690000	735.000000	5034	12585.000000	4.787908
752.690000	734.000000	5084	12710.000000	4.786442
753.690000	733.000000	5076	12690.000000	4.784977
754.690000	732.000000	5297	13242.500000	4.783512
755.690000	731.000000	5236	13090.000000	4.782047
756.690000	730.000000	5264	13160.000000	4.780581
757.690000	729.000000	5333	13332.500000	4.779116
758.690000	728.000000	5323	13307.500000	4.777651
759.690000	727.000000	5356	13390.000000	4.776186
760.690000	726.000000	5359	13397.500000	4.774720
761.690000	725.000000	5576	13940.000000	4.773255
762.690000	724.000000	5763	14407.500000	4.771790
763.690000	723.000000	6088	15220.000000	4.770325
764.690000	722.000000	6221	15552.500000	4.768859
765.690000	721.000000	5929	14822.500000	4.767394
766.690000	720.000000	5490	13725.000000	4.765929
767.690000	719.000000	4760	11900.000000	4.764464
768.690000	718.000000	4561	11402.500000	4.762998
769.690000	717.000000	4685	11712.500000	4.761533
770.690000	716.000000	4750	11875.000000	4.760068
771.690000	715.000000	4825	12062.500000	4.758603
772.690000	714.000000	4831	12077.500000	4.757137
773.690000	713.000000	4878	12195.000000	4.755672
774.690000	712.000000	5224	13060.000000	4.754207
775.690000	711.000000	5386	13465.000000	4.752742
776.690000	710.000000	5799	14497.500000	4.751276
777.690000	709.000000	6408	16020.000000	4.749811
778.690000	708.000000	6325	15812.500000	4.748346
779.690000	707.000000	5242	13105.000000	4.746881
780.690000	706.000000	4024	10060.000000	4.745415
781.690000	705.000000	3109	7772.500000	4.743950
782.690000	704.000000	2879	7197.500000	4.742485
783.690000	703.000000	2830	7075.000000	4.741020
784.690000	702.000000	2764	6910.000000	4.739554
785.690000	701.000000	2698	6745.000000	4.738089
786.690000	700.000000	2732	6830.000000	4.736624
787.690000	699.000000	2767	6917.500000	4.735159
788.690000	698.000000	2783	6957.500000	4.733693
